
Intensity (Wm-2)	Eff (%)	Voc (V)	Jsc (mAcm-2)	FF 	Area (cm2)	Vmpp (V)	Impp (A)	Rmpp (Ohm)
1.00000E+3	8.17838E+0	1.04000E+0	-1.07853E+1	7.29125E-1	1.60000E-1	8.25000E-1	-1.58611E-3	5.20140E+2


V(V)	J (Acm-2)
1.05000E+0	1.15277E-3
1.04500E+0	6.27339E-4
1.04000E+0	1.60002E-4
1.03500E+0	-4.20169E-4
1.03000E+0	-7.63745E-4
1.02500E+0	-1.30267E-3
1.02000E+0	-1.73914E-3
1.01500E+0	-2.17953E-3
1.01000E+0	-2.53557E-3
1.00500E+0	-2.90246E-3
1.00000E+0	-3.28479E-3
9.95000E-1	-3.60729E-3
9.90000E-1	-3.95620E-3
9.85000E-1	-4.26255E-3
9.80000E-1	-4.58851E-3
9.75000E-1	-5.00941E-3
9.70000E-1	-5.25673E-3
9.65000E-1	-5.53603E-3
9.60000E-1	-5.79326E-3
9.55000E-1	-6.04016E-3
9.50000E-1	-6.39124E-3
9.45000E-1	-6.56389E-3
9.40000E-1	-6.97612E-3
9.35000E-1	-7.12299E-3
9.30000E-1	-7.25804E-3
9.25000E-1	-7.40248E-3
9.20000E-1	-7.67709E-3
9.15000E-1	-7.84413E-3
9.10000E-1	-8.02489E-3
9.05000E-1	-8.14076E-3
9.00000E-1	-8.31725E-3
8.95000E-1	-8.50038E-3
8.90000E-1	-8.61293E-3
8.85000E-1	-8.71648E-3
8.80000E-1	-8.89494E-3
8.75000E-1	-8.91494E-3
8.70000E-1	-9.01262E-3
8.65000E-1	-9.15338E-3
8.60000E-1	-9.30517E-3
8.55000E-1	-9.41154E-3
8.50000E-1	-9.47928E-3
8.45000E-1	-9.55451E-3
8.40000E-1	-9.62174E-3
8.35000E-1	-9.68184E-3
8.30000E-1	-9.70664E-3
8.25000E-1	-9.91319E-3
8.20000E-1	-9.96216E-3
8.15000E-1	-9.96304E-3
8.10000E-1	-1.00807E-2
8.05000E-1	-9.99997E-3
8.00000E-1	-1.00538E-2
7.95000E-1	-1.01424E-2
7.90000E-1	-1.01964E-2
7.85000E-1	-1.02671E-2
7.80000E-1	-1.03032E-2
7.75000E-1	-1.03732E-2
7.70000E-1	-1.04098E-2
7.65000E-1	-1.03990E-2
7.60000E-1	-1.04202E-2
7.55000E-1	-1.03062E-2
7.50000E-1	-1.03832E-2
7.45000E-1	-1.04889E-2
7.40000E-1	-1.04132E-2
7.35000E-1	-1.04042E-2
7.30000E-1	-1.03992E-2
7.25000E-1	-1.05194E-2
7.20000E-1	-1.05822E-2
7.15000E-1	-1.05212E-2
7.10000E-1	-1.05877E-2
7.05000E-1	-1.06168E-2
7.00000E-1	-1.05397E-2
6.95000E-1	-1.05996E-2
6.90000E-1	-1.06548E-2
6.85000E-1	-1.05918E-2
6.80000E-1	-1.06585E-2
6.75000E-1	-1.05488E-2
6.70000E-1	-1.05823E-2
6.65000E-1	-1.05174E-2
6.60000E-1	-1.05908E-2
6.55000E-1	-1.06138E-2
6.50000E-1	-1.05520E-2
6.45000E-1	-1.05769E-2
6.40000E-1	-1.06047E-2
6.35000E-1	-1.06220E-2
6.30000E-1	-1.04817E-2
6.25000E-1	-1.05567E-2
6.20000E-1	-1.06312E-2
6.15000E-1	-1.06154E-2
6.10000E-1	-1.06254E-2
6.05000E-1	-1.06446E-2
6.00000E-1	-1.06535E-2
5.95000E-1	-1.06626E-2
5.90000E-1	-1.06629E-2
5.85000E-1	-1.06598E-2
5.80000E-1	-1.06100E-2
5.75000E-1	-1.06162E-2
5.70000E-1	-1.05618E-2
5.65000E-1	-1.05624E-2
5.60000E-1	-1.07195E-2
5.55000E-1	-1.06556E-2
5.50000E-1	-1.06595E-2
5.45000E-1	-1.06896E-2
5.40000E-1	-1.07381E-2
5.35000E-1	-1.07245E-2
5.30000E-1	-1.07537E-2
5.25000E-1	-1.07248E-2
5.20000E-1	-1.07405E-2
5.15000E-1	-1.08305E-2
5.10000E-1	-1.07085E-2
5.05000E-1	-1.07724E-2
5.00000E-1	-1.07423E-2
4.95000E-1	-1.08793E-2
4.90000E-1	-1.08032E-2
4.85000E-1	-1.07314E-2
4.80000E-1	-1.08007E-2
4.75000E-1	-1.08451E-2
4.70000E-1	-1.08669E-2
4.65000E-1	-1.08667E-2
4.60000E-1	-1.07497E-2
4.55000E-1	-1.08208E-2
4.50000E-1	-1.08275E-2
4.45000E-1	-1.07435E-2
4.40000E-1	-1.08377E-2
4.35000E-1	-1.08702E-2
4.30000E-1	-1.08204E-2
4.25000E-1	-1.07952E-2
4.20000E-1	-1.07758E-2
4.15000E-1	-1.06692E-2
4.10000E-1	-1.06727E-2
4.05000E-1	-1.07444E-2
4.00000E-1	-1.06942E-2
3.95000E-1	-1.08259E-2
3.90000E-1	-1.08161E-2
3.85000E-1	-1.07366E-2
3.80000E-1	-1.07304E-2
3.75000E-1	-1.07625E-2
3.70000E-1	-1.07072E-2
3.65000E-1	-1.07278E-2
3.60000E-1	-1.07490E-2
3.55000E-1	-1.07747E-2
3.50000E-1	-1.08595E-2
3.45000E-1	-1.08408E-2
3.40000E-1	-1.08694E-2
3.35000E-1	-1.08171E-2
3.30000E-1	-1.08293E-2
3.25000E-1	-1.08379E-2
3.20000E-1	-1.08595E-2
3.15000E-1	-1.08340E-2
3.10000E-1	-1.08101E-2
3.05000E-1	-1.08574E-2
3.00000E-1	-1.07888E-2
2.95000E-1	-1.07871E-2
2.90000E-1	-1.08650E-2
2.85000E-1	-1.08210E-2
2.80000E-1	-1.08315E-2
2.75000E-1	-1.08568E-2
2.70000E-1	-1.08813E-2
2.65000E-1	-1.08951E-2
2.60000E-1	-1.08298E-2
2.55000E-1	-1.08205E-2
2.50000E-1	-1.08828E-2
2.45000E-1	-1.08806E-2
2.40000E-1	-1.08388E-2
2.35000E-1	-1.08921E-2
2.30000E-1	-1.09397E-2
2.25000E-1	-1.09251E-2
2.20000E-1	-1.09247E-2
2.15000E-1	-1.08872E-2
2.10000E-1	-1.09436E-2
2.05000E-1	-1.08561E-2
2.00000E-1	-1.08849E-2
1.95000E-1	-1.08994E-2
1.90000E-1	-1.08420E-2
1.85000E-1	-1.08269E-2
1.80000E-1	-1.08256E-2
1.75000E-1	-1.08286E-2
1.70000E-1	-1.08432E-2
1.65000E-1	-1.08613E-2
1.60000E-1	-1.08145E-2
1.55000E-1	-1.07165E-2
1.50000E-1	-1.06835E-2
1.45000E-1	-1.08242E-2
1.40000E-1	-1.09004E-2
1.35000E-1	-1.08700E-2
1.30000E-1	-1.08416E-2
1.25000E-1	-1.07921E-2
1.20000E-1	-1.08960E-2
1.15000E-1	-1.08281E-2
1.10000E-1	-1.08269E-2
1.05000E-1	-1.07886E-2
1.00000E-1	-1.08862E-2
9.50000E-2	-1.09088E-2
9.00000E-2	-1.08651E-2
8.50000E-2	-1.08396E-2
8.00000E-2	-1.08053E-2
7.50000E-2	-1.08636E-2
7.00000E-2	-1.08569E-2
6.50000E-2	-1.06681E-2
6.00000E-2	-1.07596E-2
5.50000E-2	-1.08010E-2
5.00000E-2	-1.08505E-2
4.50000E-2	-1.08042E-2
4.00000E-2	-1.07843E-2
3.50000E-2	-1.08181E-2
3.00000E-2	-1.08169E-2
2.50000E-2	-1.08074E-2
2.00000E-2	-1.07781E-2
1.50000E-2	-1.08645E-2
1.00000E-2	-1.06897E-2
5.00000E-3	-1.07555E-2
0.00000E+0	-1.07853E-2
-5.00000E-3	-1.08139E-2
-1.00000E-2	-1.08200E-2
-1.50000E-2	-1.07930E-2
-2.00000E-2	-1.08375E-2
-2.50000E-2	-1.09008E-2
-3.00000E-2	-1.08476E-2
-3.50000E-2	-1.08663E-2
-4.00000E-2	-1.07712E-2
-4.50000E-2	-1.08339E-2
-5.00000E-2	-1.07921E-2
-5.50000E-2	-1.08081E-2
-6.00000E-2	-1.07963E-2
-6.50000E-2	-1.07965E-2
-7.00000E-2	-1.08317E-2
-7.50000E-2	-1.07858E-2
-8.00000E-2	-1.07607E-2
-8.50000E-2	-1.08287E-2
-9.00000E-2	-1.08238E-2
-9.50000E-2	-1.07575E-2
-1.00000E-1	-1.08014E-2
-1.05000E-1	-1.08293E-2
-1.10000E-1	-1.07395E-2
-1.15000E-1	-1.08677E-2
-1.20000E-1	-1.07598E-2
-1.25000E-1	-1.08272E-2
-1.30000E-1	-1.08026E-2
-1.35000E-1	-1.07351E-2
-1.40000E-1	-1.07424E-2
-1.45000E-1	-1.07536E-2
-1.50000E-1	-1.07701E-2
-1.55000E-1	-1.07785E-2
-1.60000E-1	-1.08364E-2
-1.65000E-1	-1.08159E-2
-1.70000E-1	-1.08389E-2
-1.75000E-1	-1.07818E-2
-1.80000E-1	-1.07613E-2
-1.85000E-1	-1.07849E-2
-1.90000E-1	-1.07895E-2
-1.95000E-1	-1.07687E-2
-2.00000E-1	-1.06584E-2
